
Umformatierung der Bottle-Files *.btl mit Hilfe
des Programms bot_form.exe

Die ersten neun Zeilen beinhalten die folgenden 
Informationen, die im AWI-Format abgelegt sind:

1. Zeile: Stationsnummer
2. Zeile: Geo. Breite [°] + [Minuten], Geo. Länge [°] + [Minuten]
3. Zeile: Tag Monat Jahr Stunde Minuten 
4. Zeile: Wassertiefe 
5. Zeile: Maximale Instrumententiefe
6. Zeile: Feldnamen: 1. Spalte: Flaschennummer, 2. Spalte: Tiefe ....
7. Zeile: Expeditionsname
8. Zeile: Bezeichnung des Meßgerätes
9. Zeile: Flag

ab der 10. Zeile folgen die Messdaten, welche Spaltenweise aufgeführt sind.
Hierbei wurden die Daten der ursprünglichen Bottle Files um die 
Pigmentparameter FUCO(ngL),HPLC_CHL_A(ngL), tot_PHAEOPIG(ngL),RATIO_PHAEO_CHL_A 
ergänzt, die von Ilka Peeken gemessen und zur Verfügung gestellt worden sind.

Dummy-Wert: -9999


Änderungen:

20.01.05

Die Bottle-Files 48401.btl und 48402.btl wurden zu 48401.fbt zusammengefügt.
(Während dieser Station wurde die Datenaufzeichnung aufgrund eines Hardwarefehlers
unterbrochen und anschliessend fortgesetzt, so dass urspruenglich zwei Bottle-Files
für die Station 48401 vorlagen.)

Nach Abgleich mit der Stationsliste wurden die folgenden Dateien umbenannt:

		 50905.btl >> 50904.fbt
  
                 54430.btl >> 54432.fbt

                 54462.btl >> 54463.fbt
 
                 58602.btl >> 58603.fbt

Nach einer endgültigen Überprüfung liegen fuer

folgende Stationen liegen Pigment-Daten vor:

42408,42604,45201,46401,46602,47001,47201,47401,50805,50904,
51105,51305,51406,51501,51601,51701,51801,51901,52001,52101,
52201,52301,52401,52501,52601,52701,52801,52901,53001,53101,
53201,53301,53401,53501,53601,53701,53801,53901,54001,54101,
54315,54403,54405,54409,54411,54414,54418,54424,54429,54442,
54448,54453,54501,54605,54607,55305,55501,55601,55701,55801,
55901,56002,56101,56202,56301,56401,56501,57007,57015,57401,
58006,58101,58301,58401,58501,58603,58703,59103,59111,59303,
59317,59318

Boris Cisewski, 28.01.05


Änderungen:

15.10.05

Nach einer weiteren Überprüfung werden fuer

folgende Stationen die Nährstoffkonzentrationen  ergänzt:

42403,42408,42420,42601,42607,42701,44401,45101,45201,46201,
46401,46602,46701,47001,47101,47201,47401,48401,50802,50816,       
50818,50901,50913,51101,51109,51303,51305,51312,51316,51402,
51406,51413,51501,51601,51701,51801,51901,52001,52101,52201,
52301,52401,52501,52601,52701,52801,52901,53001,53101,53201,
53301,53401,53501,53601,53701,53801,53901,54001,54101,54308,
54310,54315,54405,54407,54409,54411,54414,54418,54424,54429,
54435,54442,54448,54453,54456,54460,54463,54501,54602,54605,
54614,54622,55303,55305,55310,55312,55501,55601,55701,55801,
55901,56002,56101,56202,56301,56401,56501,57002,57004,57007,
57011,57015,57201,57301,57401,58002,58006,58010,58014,58018,
58101,58301,58401,58501,58603,58701,58703,58710,58715,58716,
58801,58901,59101,59103,59107,59111,59201,59303,59306,59312

             